#      z (A) rho (1e-6/A2) irho (1e-6/A2)
-10.00000000   0.00000000   0.00000000
 -9.90000000   0.00000000   0.00000000
 -9.80000000   0.00000000   0.00000000
 -9.70000000   0.00000000   0.00000000
 -9.60000000   0.00000000   0.00000000
 -9.50000000   0.00000000   0.00000000
 -9.40000000   0.00000000   0.00000000
 -9.30000000   0.00000000   0.00000000
 -9.20000000   0.00000000   0.00000000
 -9.10000000   0.00000000   0.00000000
 -9.00000000   0.00000000   0.00000000
 -8.90000000   0.00000000   0.00000000
 -8.80000000   0.00000000   0.00000000
 -8.70000000   0.00000000   0.00000000
 -8.60000000   0.00000000   0.00000000
 -8.50000000   0.00000000   0.00000000
 -8.40000000   0.00000000   0.00000000
 -8.30000000   0.00000000   0.00000000
 -8.20000000   0.00000000   0.00000000
 -8.10000000   0.00000000   0.00000000
 -8.00000000   0.00000000   0.00000000
 -7.90000000   0.00000000   0.00000000
 -7.80000000   0.00000000   0.00000000
 -7.70000000   0.00000000   0.00000000
 -7.60000000   0.00000000   0.00000000
 -7.50000000   0.00000000   0.00000000
 -7.40000000   0.00000000   0.00000000
 -7.30000000   0.00000000   0.00000000
 -7.20000000   0.00000000   0.00000000
 -7.10000000   0.00000000   0.00000000
 -7.00000000   0.00000000   0.00000000
 -6.90000000   0.00000000   0.00000000
 -6.80000000   0.00000000   0.00000000
 -6.70000000   0.00000000   0.00000000
 -6.60000000   0.00000000   0.00000000
 -6.50000000   0.00000000   0.00000000
 -6.40000000   0.00000000   0.00000000
 -6.30000000   0.00000000   0.00000000
 -6.20000000   0.00000000   0.00000000
 -6.10000000   0.00000000   0.00000000
 -6.00000000   0.00000000   0.00000000
 -5.90000000   0.00000000   0.00000000
 -5.80000000   0.00000000   0.00000000
 -5.70000000   0.00000000   0.00000000
 -5.60000000   0.00000000   0.00000000
 -5.50000000   0.00000000   0.00000000
 -5.40000000   0.00000000   0.00000000
 -5.30000000   0.00000000   0.00000000
 -5.20000000   0.00000000   0.00000000
 -5.10000000   0.00000000   0.00000000
 -5.00000000   0.00000000   0.00000000
 -4.90000000   0.00000000   0.00000000
 -4.80000000   0.00000000   0.00000000
 -4.70000000   0.00000000   0.00000000
 -4.60000000   0.00000000   0.00000000
 -4.50000000   0.00000000   0.00000000
 -4.40000000   0.00000000   0.00000000
 -4.30000000   0.00000000   0.00000000
 -4.20000000   0.00000000   0.00000000
 -4.10000000   0.00000000   0.00000000
 -4.00000000   0.00000000   0.00000000
 -3.90000000   0.00000000   0.00000000
 -3.80000000   0.00000000   0.00000000
 -3.70000000   0.00000000   0.00000000
 -3.60000000   0.00000000   0.00000000
 -3.50000000   0.00000000   0.00000000
 -3.40000000   0.00000000   0.00000000
 -3.30000000   0.00000000   0.00000000
 -3.20000000   0.00000000   0.00000000
 -3.10000000   0.00000000   0.00000000
 -3.00000000   0.00000000   0.00000000
 -2.90000000   0.00000000   0.00000000
 -2.80000000   0.00000000   0.00000000
 -2.70000000   0.00000000   0.00000000
 -2.60000000   0.00000000   0.00000000
 -2.50000000   0.00000000   0.00000000
 -2.40000000   0.00000000   0.00000000
 -2.30000000   0.00000000   0.00000000
 -2.20000000   0.00000000   0.00000000
 -2.10000000   0.00000000   0.00000000
 -2.00000000   0.00000000   0.00000000
 -1.90000000   0.00000000   0.00000000
 -1.80000000   0.00000000   0.00000000
 -1.70000000   0.00000000   0.00000000
 -1.60000000   0.00000000   0.00000000
 -1.50000000   0.00000000   0.00000000
 -1.40000000   0.00000000   0.00000000
 -1.30000000   0.00000000   0.00000000
 -1.20000000   0.00000000   0.00000000
 -1.10000000   0.00000000   0.00000000
 -1.00000000   0.00000000   0.00000000
 -0.90000000   0.00000000   0.00000000
 -0.80000000   0.00000000   0.00000000
 -0.70000000   0.00000000   0.00000000
 -0.60000000   0.00000000   0.00000000
 -0.50000000   0.00000000   0.00000000
 -0.40000000   0.00000000   0.00000000
 -0.30000000   0.00000000   0.00000000
 -0.20000000   0.00000000   0.00000000
 -0.10000000   0.00000000   0.00000000
 -0.00000000   0.00000000   0.00000000
  0.10000000   8.02405506   0.00060448
  0.20000000   8.02405506   0.00060448
  0.30000000   8.02405506   0.00060448
  0.40000000   8.02405506   0.00060448
  0.50000000   8.02405506   0.00060448
  0.60000000   8.02405506   0.00060448
  0.70000000   8.02405506   0.00060448
  0.80000000   8.02405506   0.00060448
  0.90000000   8.02405506   0.00060448
  1.00000000   8.02405506   0.00060448
  1.10000000   8.02405506   0.00060448
  1.20000000   8.02405506   0.00060448
  1.30000000   8.02405506   0.00060448
  1.40000000   8.02405506   0.00060448
  1.50000000   8.02405506   0.00060448
  1.60000000   8.02405506   0.00060448
  1.70000000   8.02405506   0.00060448
  1.80000000   8.02405506   0.00060448
  1.90000000   8.02405506   0.00060448
  2.00000000   8.02405506   0.00060448
  2.10000000   8.02405506   0.00060448
  2.20000000   8.02405506   0.00060448
  2.30000000   8.02405506   0.00060448
  2.40000000   8.02405506   0.00060448
  2.50000000   8.02405506   0.00060448
  2.60000000   8.02405506   0.00060448
  2.70000000   8.02405506   0.00060448
  2.80000000   8.02405506   0.00060448
  2.90000000   8.02405506   0.00060448
  3.00000000   8.02405506   0.00060448
  3.10000000   8.02405506   0.00060448
  3.20000000   8.02405506   0.00060448
  3.30000000   8.02405506   0.00060448
  3.40000000   8.02405506   0.00060448
  3.50000000   8.02405506   0.00060448
  3.60000000   8.02405506   0.00060448
  3.70000000   8.02405506   0.00060448
  3.80000000   8.02405506   0.00060448
  3.90000000   8.02405506   0.00060448
  4.00000000   8.02405506   0.00060448
  4.10000000   8.02405506   0.00060448
  4.20000000   8.02405506   0.00060448
  4.30000000   8.02405506   0.00060448
  4.40000000   8.02405506   0.00060448
  4.50000000   8.02405506   0.00060448
  4.60000000   8.02405506   0.00060448
  4.70000000   8.02405506   0.00060448
  4.80000000   8.02405506   0.00060448
  4.90000000   8.02405506   0.00060448
  5.00000000   8.02405506   0.00060448
  5.10000000   8.02405506   0.00060448
  5.20000000   8.02405506   0.00060448
  5.30000000   8.02405506   0.00060448
  5.40000000   8.02405506   0.00060448
  5.50000000   8.02405506   0.00060448
  5.60000000   8.02405506   0.00060448
  5.70000000   8.02405506   0.00060448
  5.80000000   8.02405506   0.00060448
  5.90000000   8.02405506   0.00060448
  6.00000000   8.02405506   0.00060448
  6.10000000   8.02405506   0.00060448
  6.20000000   8.02405506   0.00060448
  6.30000000   8.02405506   0.00060448
  6.40000000   8.02405506   0.00060448
  6.50000000   8.02405506   0.00060448
  6.60000000   8.02405506   0.00060448
  6.70000000   8.02405506   0.00060448
  6.80000000   8.02405506   0.00060448
  6.90000000   8.02405506   0.00060448
  7.00000000   8.02405506   0.00060448
  7.10000000   8.02405506   0.00060448
  7.20000000   8.02405506   0.00060448
  7.30000000   8.02405506   0.00060448
  7.40000000   8.02405506   0.00060448
  7.50000000   8.02405506   0.00060448
  7.60000000   8.02405506   0.00060448
  7.70000000   8.02405506   0.00060448
  7.80000000   8.02405506   0.00060448
  7.90000000   8.02405506   0.00060448
  8.00000000   8.02405506   0.00060448
  8.10000000   8.02405506   0.00060448
  8.20000000   8.02405506   0.00060448
  8.30000000   8.02405506   0.00060448
  8.40000000   8.02405506   0.00060448
  8.50000000   8.02405506   0.00060448
  8.60000000   8.02405506   0.00060448
  8.70000000   8.02405506   0.00060448
  8.80000000   8.02405506   0.00060448
  8.90000000   8.02405506   0.00060448
  9.00000000   8.02405506   0.00060448
  9.10000000   8.02405506   0.00060448
  9.20000000   8.02405506   0.00060448
  9.30000000   8.02405506   0.00060448
  9.40000000   8.02405506   0.00060448
  9.50000000   8.02405506   0.00060448
  9.60000000   8.02405506   0.00060448
  9.70000000   8.02405506   0.00060448
  9.80000000   8.02405506   0.00060448
  9.90000000   8.02405506   0.00060448
 10.00000000   8.02405506   0.00060448
 10.10000000   8.02405506   0.00060448
 10.20000000   8.02405506   0.00060448
 10.30000000   8.02405506   0.00060448
 10.40000000   8.02405506   0.00060448
 10.50000000   8.02405506   0.00060448
 10.60000000   8.02405506   0.00060448
 10.70000000   8.02405506   0.00060448
 10.80000000   8.02405506   0.00060448
 10.90000000   8.02405506   0.00060448
 11.00000000   8.02405506   0.00060448
 11.10000000   8.02405506   0.00060448
 11.20000000   8.02405506   0.00060448
 11.30000000   8.02405506   0.00060448
 11.40000000   8.02405506   0.00060448
 11.50000000   8.02405506   0.00060448
 11.60000000   8.02405506   0.00060448
 11.70000000   8.02405506   0.00060448
 11.80000000   8.02405506   0.00060448
 11.90000000   8.02405506   0.00060448
 12.00000000   8.02405506   0.00060448
 12.10000000   8.02405506   0.00060448
 12.20000000   8.02405506   0.00060448
 12.30000000   8.02405506   0.00060448
 12.40000000   8.02405506   0.00060448
 12.50000000   8.02405506   0.00060448
 12.60000000   8.02405506   0.00060448
 12.70000000   8.02405506   0.00060448
 12.80000000   8.02405506   0.00060448
 12.90000000   8.02405506   0.00060448
 13.00000000   8.02405506   0.00060448
 13.10000000   8.02405506   0.00060448
 13.20000000   8.02405506   0.00060448
 13.30000000   8.02405506   0.00060448
 13.40000000   8.02405506   0.00060448
 13.50000000   8.02405506   0.00060448
 13.60000000   8.02405506   0.00060448
 13.70000000   8.02405506   0.00060448
 13.80000000   8.02405506   0.00060448
 13.90000000   8.02405506   0.00060448
 14.00000000   8.02405506   0.00060448
 14.10000000   8.02405506   0.00060448
 14.20000000   8.02405506   0.00060448
 14.30000000   8.02405506   0.00060448
 14.40000000   8.02405506   0.00060448
 14.50000000   8.02405506   0.00060448
 14.60000000   8.02405506   0.00060448
 14.70000000   8.02405506   0.00060448
 14.80000000   8.02405506   0.00060448
 14.90000000   8.02405506   0.00060448
 15.00000000   8.02405506   0.00060448
 15.10000000   8.02405506   0.00060448
 15.20000000   8.02405506   0.00060448
 15.30000000   8.02405506   0.00060448
 15.40000000   8.02405506   0.00060448
 15.50000000   8.02405506   0.00060448
 15.60000000   8.02405506   0.00060448
 15.70000000   8.02405506   0.00060448
 15.80000000   8.02405506   0.00060448
 15.90000000   8.02405506   0.00060448
 16.00000000   8.02405506   0.00060448
 16.10000000   8.02405506   0.00060448
 16.20000000   8.02405506   0.00060448
 16.30000000   8.02405506   0.00060448
 16.40000000   8.02405506   0.00060448
 16.50000000   8.02405506   0.00060448
 16.60000000   8.02405506   0.00060448
 16.70000000   8.02405506   0.00060448
 16.80000000   8.02405506   0.00060448
 16.90000000   8.02405506   0.00060448
 17.00000000   8.02405506   0.00060448
 17.10000000   8.02405506   0.00060448
 17.20000000   8.02405506   0.00060448
 17.30000000   8.02405506   0.00060448
 17.40000000   8.02405506   0.00060448
 17.50000000   8.02405506   0.00060448
 17.60000000   8.02405506   0.00060448
 17.70000000   8.02405506   0.00060448
 17.80000000   8.02405506   0.00060448
 17.90000000   8.02405506   0.00060448
 18.00000000   8.02405506   0.00060448
 18.10000000   8.02405506   0.00060448
 18.20000000   8.02405506   0.00060448
 18.30000000   8.02405506   0.00060448
 18.40000000   8.02405506   0.00060448
 18.50000000   8.02405506   0.00060448
 18.60000000   8.02405506   0.00060448
 18.70000000   8.02405506   0.00060448
 18.80000000   8.02405506   0.00060448
 18.90000000   8.02405506   0.00060448
 19.00000000   8.02405506   0.00060448
 19.10000000   8.02405506   0.00060448
 19.20000000   8.02405506   0.00060448
 19.30000000   8.02405506   0.00060448
 19.40000000   8.02405506   0.00060448
 19.50000000   8.02405506   0.00060448
 19.60000000   8.02405506   0.00060448
 19.70000000   8.02405506   0.00060448
 19.80000000   8.02405506   0.00060448
 19.90000000   8.02405506   0.00060448
 20.00000000   8.02405506   0.00060448
 20.10000000   8.02405506   0.00060448
 20.20000000   8.02405506   0.00060448
 20.30000000   8.02405506   0.00060448
 20.40000000   8.02405506   0.00060448
 20.50000000   8.02405506   0.00060448
 20.60000000   8.02405506   0.00060448
 20.70000000   8.02405506   0.00060448
 20.80000000   8.02405506   0.00060448
 20.90000000   8.02405506   0.00060448
 21.00000000   8.02405506   0.00060448
 21.10000000   8.02405506   0.00060448
 21.20000000   8.02405506   0.00060448
 21.30000000   8.02405506   0.00060448
 21.40000000   8.02405506   0.00060448
 21.50000000   8.02405506   0.00060448
 21.60000000   8.02405506   0.00060448
 21.70000000   8.02405506   0.00060448
 21.80000000   8.02405506   0.00060448
 21.90000000   8.02405506   0.00060448
 22.00000000   8.02405506   0.00060448
 22.10000000   8.02405506   0.00060448
 22.20000000   8.02405506   0.00060448
 22.30000000   8.02405506   0.00060448
 22.40000000   8.02405506   0.00060448
 22.50000000   8.02405506   0.00060448
 22.60000000   8.02405506   0.00060448
 22.70000000   8.02405506   0.00060448
 22.80000000   8.02405506   0.00060448
 22.90000000   8.02405506   0.00060448
 23.00000000   8.02405506   0.00060448
 23.10000000   8.02405506   0.00060448
 23.20000000   8.02405506   0.00060448
 23.30000000   8.02405506   0.00060448
 23.40000000   8.02405506   0.00060448
 23.50000000   8.02405506   0.00060448
 23.60000000   8.02405506   0.00060448
 23.70000000   8.02405506   0.00060448
 23.80000000   8.02405506   0.00060448
 23.90000000   8.02405506   0.00060448
 24.00000000   8.02405506   0.00060448
 24.10000000   8.02405506   0.00060448
 24.20000000   8.02405506   0.00060448
 24.30000000   8.02405506   0.00060448
 24.40000000   8.02405506   0.00060448
 24.50000000   8.02405506   0.00060448
 24.60000000   8.02405506   0.00060448
 24.70000000   8.02405506   0.00060448
 24.80000000   8.02405506   0.00060448
 24.90000000   8.02405506   0.00060448
 25.00000000   8.02405506   0.00060448
 25.10000000   8.02405506   0.00060448
 25.20000000   8.02405506   0.00060448
 25.30000000   8.02405506   0.00060448
 25.40000000   8.02405506   0.00060448
 25.50000000   8.02405506   0.00060448
 25.60000000   8.02405506   0.00060448
 25.70000000   8.02405506   0.00060448
 25.80000000   8.02405506   0.00060448
 25.90000000   8.02405506   0.00060448
 26.00000000   8.02405506   0.00060448
 26.10000000   8.02405506   0.00060448
 26.20000000   8.02405506   0.00060448
 26.30000000   8.02405506   0.00060448
 26.40000000   8.02405506   0.00060448
 26.50000000   8.02405506   0.00060448
 26.60000000   8.02405506   0.00060448
 26.70000000   8.02405506   0.00060448
 26.80000000   8.02405506   0.00060448
 26.90000000   8.02405506   0.00060448
 27.00000000   8.02405506   0.00060448
 27.10000000   8.02405506   0.00060448
 27.20000000   8.02405506   0.00060448
 27.30000000   8.02405506   0.00060448
 27.40000000   8.02405506   0.00060448
 27.50000000   8.02405506   0.00060448
 27.60000000   8.02405506   0.00060448
 27.70000000   8.02405506   0.00060448
 27.80000000   8.02405506   0.00060448
 27.90000000   8.02405506   0.00060448
 28.00000000   8.02405506   0.00060448
 28.10000000   8.02405506   0.00060448
 28.20000000   8.02405506   0.00060448
 28.30000000   8.02405506   0.00060448
 28.40000000   8.02405506   0.00060448
 28.50000000   8.02405506   0.00060448
 28.60000000   8.02405506   0.00060448
 28.70000000   8.02405506   0.00060448
 28.80000000   8.02405506   0.00060448
 28.90000000   8.02405506   0.00060448
 29.00000000   8.02405506   0.00060448
 29.10000000   8.02405506   0.00060448
 29.20000000   8.02405506   0.00060448
 29.30000000   8.02405506   0.00060448
 29.40000000   8.02405506   0.00060448
 29.50000000   8.02405506   0.00060448
 29.60000000   8.02405506   0.00060448
 29.70000000   8.02405506   0.00060448
 29.80000000   8.02405506   0.00060448
 29.90000000   8.02405506   0.00060448
 30.00000000   8.02405506   0.00060448
 30.10000000   8.02405506   0.00060448
 30.20000000   8.02405506   0.00060448
 30.30000000   8.02405506   0.00060448
 30.40000000   8.02405506   0.00060448
 30.50000000   8.02405506   0.00060448
 30.60000000   8.02405506   0.00060448
 30.70000000   8.02405506   0.00060448
 30.80000000   8.02405506   0.00060448
 30.90000000   8.02405506   0.00060448
 31.00000000   8.02405506   0.00060448
 31.10000000   8.02405506   0.00060448
 31.20000000   8.02405506   0.00060448
 31.30000000   8.02405506   0.00060448
 31.40000000   8.02405506   0.00060448
 31.50000000   8.02405506   0.00060448
 31.60000000   8.02405506   0.00060448
 31.70000000   8.02405506   0.00060448
 31.80000000   8.02405506   0.00060448
 31.90000000   8.02405506   0.00060448
 32.00000000   8.02405506   0.00060448
 32.10000000   8.02405506   0.00060448
 32.20000000   8.02405506   0.00060448
 32.30000000   8.02405506   0.00060448
 32.40000000   8.02405506   0.00060448
 32.50000000   8.02405506   0.00060448
 32.60000000   8.02405506   0.00060448
 32.70000000   8.02405506   0.00060448
 32.80000000   8.02405506   0.00060448
 32.90000000   8.02405506   0.00060448
 33.00000000   8.02405506   0.00060448
 33.10000000   8.02405506   0.00060448
 33.20000000   8.02405506   0.00060448
 33.30000000   8.02405506   0.00060448
 33.40000000   6.55353378   0.00089257
 33.50000000   6.55353378   0.00089257
 33.60000000   6.55353378   0.00089257
 33.70000000   6.55353378   0.00089257
 33.80000000   6.55353378   0.00089257
 33.90000000   6.55353378   0.00089257
 34.00000000   6.55353378   0.00089257
 34.10000000   6.55353378   0.00089257
 34.20000000   6.55353378   0.00089257
 34.30000000   6.55353378   0.00089257
 34.40000000   6.55353378   0.00089257
 34.50000000   6.55353378   0.00089257
 34.60000000   6.55353378   0.00089257
 34.70000000   6.55353378   0.00089257
 34.80000000   6.55353378   0.00089257
 34.90000000   6.55353378   0.00089257
 35.00000000   6.55353378   0.00089257
 35.10000000   6.55353378   0.00089257
 35.20000000   6.55353378   0.00089257
 35.30000000   6.55353378   0.00089257
 35.40000000   6.55353378   0.00089257
 35.50000000   6.55353378   0.00089257
 35.60000000   6.55353378   0.00089257
 35.70000000   6.55353378   0.00089257
 35.80000000   6.55353378   0.00089257
 35.90000000   6.55353378   0.00089257
 36.00000000   6.55353378   0.00089257
 36.10000000   6.55353378   0.00089257
 36.20000000   6.55353378   0.00089257
 36.30000000   6.55353378   0.00089257
 36.40000000   6.55353378   0.00089257
 36.50000000   6.55353378   0.00089257
 36.60000000   6.55353378   0.00089257
 36.70000000   6.55353378   0.00089257
 36.80000000   6.55353378   0.00089257
 36.90000000   6.55353378   0.00089257
 37.00000000   6.55353378   0.00089257
 37.10000000   6.55353378   0.00089257
 37.20000000   6.55353378   0.00089257
 37.30000000   6.55353378   0.00089257
 37.40000000   6.55353378   0.00089257
 37.50000000   6.55353378   0.00089257
 37.60000000   6.55353378   0.00089257
 37.70000000   6.55353378   0.00089257
 37.80000000   6.55353378   0.00089257
 37.90000000   6.55353378   0.00089257
 38.00000000   6.55353378   0.00089257
 38.10000000   6.55353378   0.00089257
 38.20000000   6.55353378   0.00089257
 38.30000000   6.55353378   0.00089257
 38.40000000   6.55353378   0.00089257
 38.50000000   6.55353378   0.00089257
 38.60000000   6.55353378   0.00089257
 38.70000000   6.55353378   0.00089257
 38.80000000   6.55353378   0.00089257
 38.90000000   6.55353378   0.00089257
 39.00000000   6.55353378   0.00089257
 39.10000000   6.55353378   0.00089257
 39.20000000   6.55353378   0.00089257
 39.30000000   6.55353378   0.00089257
 39.40000000   6.55353378   0.00089257
 39.50000000   6.55353378   0.00089257
 39.60000000   6.55353378   0.00089257
 39.70000000   6.55353378   0.00089257
 39.80000000   6.55353378   0.00089257
 39.90000000   6.55353378   0.00089257
 40.00000000   6.55353378   0.00089257
 40.10000000   6.55353378   0.00089257
 40.20000000   6.55353378   0.00089257
 40.30000000   6.55353378   0.00089257
 40.40000000   6.55353378   0.00089257
 40.50000000   6.55353378   0.00089257
 40.60000000   6.55353378   0.00089257
 40.70000000   6.55353378   0.00089257
 40.80000000   6.55353378   0.00089257
 40.90000000   6.55353378   0.00089257
 41.00000000   6.55353378   0.00089257
